1                    ***** LOWTRAN 7 *****
0 CARD 1  *****    5    3    0    0    0    0    0    0    0    0    0    0    0   0.000   0.00
0 CARD 2  *****    0    0    0    0    0    0     0.000     0.000     0.000     0.000     0.000
0 CARD 3  *****     0.000     0.000     0.000     0.000     0.000     0.000    0
0 CARD 4  ***** 10000.000 20000.000    50.000
0 PROGRAM WILL COMPUTE TRANSMITTANCE           
0 ATMOSPHERIC MODEL
          TEMPERATURE =    5     SUBARCTIC   WINTER  
          WATER VAPOR =    5     SUBARCTIC   WINTER  
          OZONE       =    5     SUBARCTIC   WINTER  
                      M4 =     5 M5 =     5 M6 =     5 MDEF =     1
0 SLANT PATH TO SPACE
          H1    =      0.000 KM
          HMIN  =      0.000 KM
          ANGLE =      0.000 DEG
0 FREQUENCY RANGE 
           V1 =      10000.0 CM-1  (      1.00 MICROMETERS)
           V2 =      20000.0 CM-1  (      0.50 MICROMETERS)
           DV =         50.0 CM-1
1
  ATMOSPHERIC PROFILES

   I     Z       P       T        N2       CNTMSLF MOL SCAT     N-1     O3 (UV)  O2 (UV)
        (KM)    (MB)    (K)            (MOL/CM2 KM)   (-)       (-)  (ATM CM/KM) (ATM CM/KM)

   1     0.00 1013.000  257.2  8.543E-01 6.469E+18 1.062E+00 3.092E-04 1.912E-03 4.172E+04
   2     1.00  887.800  259.1  6.490E-01 6.469E+18 9.237E-01 2.690E-04 1.913E-03 3.408E+04
   3     2.00  777.500  255.9  5.071E-01 3.971E+18 8.191E-01 2.385E-04 1.912E-03 2.874E+04
   4     3.00  679.800  252.7  3.951E-01 2.078E+18 7.252E-01 2.112E-04 2.005E-03 2.426E+04
   5     4.00  593.200  247.7  3.100E-01 7.558E+17 6.456E-01 1.880E-04 2.099E-03 2.071E+04
   6     5.00  515.800  240.9  2.444E-01 1.798E+17 5.772E-01 1.681E-04 2.192E-03 1.783E+04
   7     6.00  446.700  234.1  1.913E-01 4.317E+16 5.144E-01 1.498E-04 2.285E-03 1.533E+04
   8     7.00  385.300  227.3  1.488E-01 1.312E+16 4.570E-01 1.331E-04 3.312E-03 1.316E+04
   9     8.00  330.800  220.6  1.147E-01 5.440E+14 4.042E-01 1.178E-04 4.201E-03 1.128E+04
  10     9.00  282.900  217.2  8.586E-02 3.174E+14 3.511E-01 1.023E-04 7.369E-03 9.471E+03
  11    10.00  241.800  217.2  6.273E-02 1.047E+14 3.001E-01 8.742E-05 8.997E-03 7.829E+03
  12    11.00  206.700  217.2  4.584E-02 1.913E+13 2.565E-01 7.473E-05 8.973E-03 6.499E+03
  13    12.00  176.600  217.2  3.346E-02 5.028E+12 2.192E-01 6.385E-05 8.762E-03 5.411E+03
  14    13.00  151.000  217.2  2.446E-02 2.022E+12 1.874E-01 5.459E-05 1.217E-02 4.523E+03
  15    14.00  129.100  217.2  1.788E-02 1.511E+12 1.602E-01 4.667E-05 1.441E-02 3.792E+03
  16    15.00  110.300  217.2  1.305E-02 1.128E+12 1.369E-01 3.988E-05 1.642E-02 3.184E+03
  17    16.00   94.310  216.6  9.582E-03 8.474E+11 1.174E-01 3.419E-05 1.759E-02 2.690E+03
  18    17.00   80.580  216.0  7.024E-03 6.357E+11 1.006E-01 2.929E-05 1.910E-02 2.276E+03
  19    18.00   68.820  215.4  5.145E-03 4.764E+11 8.613E-02 2.509E-05 2.109E-02 1.928E+03
  20    19.00   58.750  214.8  3.765E-03 3.566E+11 7.373E-02 2.148E-05 2.284E-02 1.634E+03
  21    20.00   50.140  214.2  2.754E-03 2.667E+11 6.310E-02 1.838E-05 2.333E-02 1.387E+03
  22    21.00   42.770  213.6  2.012E-03 1.992E+11 5.398E-02 1.572E-05 2.158E-02 1.178E+03
  23    22.00   36.470  213.0  1.469E-03 1.487E+11 4.616E-02 1.344E-05 1.937E-02 1.001E+03
  24    23.00   31.090  212.4  1.072E-03 1.109E+11 3.946E-02 1.149E-05 1.774E-02 8.511E+02
  25    24.00   26.490  211.8  7.818E-04 8.261E+10 3.372E-02 9.821E-06 1.550E-02 7.239E+02
  26    25.00   22.560  211.2  5.695E-04 6.026E+10 2.880E-02 8.388E-06 1.352E-02 6.158E+02
  27    30.00   10.200  216.0  1.125E-04 1.178E+10 1.273E-02 3.708E-06 6.870E-03 2.687E+02
  28    35.00    4.701  222.3  2.290E-05 2.362E+09 5.701E-03 1.661E-06 3.532E-03 1.196E+02
  29    40.00    2.243  234.7  4.805E-06 4.824E+08 2.576E-03 7.504E-07 1.519E-03 5.392E+01
  30    45.00    1.113  247.0  1.096E-06 1.072E+08 1.215E-03 3.538E-07 4.977E-04 2.540E+01
  31    50.00    0.572  259.3  2.690E-07 2.518E+07 5.946E-04 1.732E-07 1.545E-04 1.242E+01
  32    70.00    0.040  245.4  1.429E-09 6.112E+04 4.394E-05 1.280E-08 2.196E-06 9.178E-01
  33   100.00    0.000  218.5  1.902E-13 1.267E-01 5.219E-07 1.520E-10 2.086E-08 8.345E-03
1
  ATMOSPHERIC PROFILES

   I     Z       P       T      CNTMFRN     HNO3    AEROSOL 1 AEROSOL 2 AEROSOL 3 AEROSOL 4 AER1*RH   CIRRUS         RH
        (KM)    (MB)    (K)   MOL/CM2 KM ATM CM/KM   (-)       (-)       (-)       (-)       (-)       (-)      (PERCNT)

   1     0.00 1013.000  257.2  4.601E+21 5.309E-06 0.000E+00 0.000E+00 0.000E+00 0.000E+00 0.000E+00 0.000E+00 8.039E+01
   2     1.00  887.800  259.1  4.002E+21 5.505E-06 0.000E+00 0.000E+00 0.000E+00 0.000E+00 0.000E+00 0.000E+00 6.924E+01
   3     2.00  777.500  255.9  2.781E+21 5.676E-06 0.000E+00 0.000E+00 0.000E+00 0.000E+00 0.000E+00 0.000E+00 6.987E+01
   4     3.00  679.800  252.7  1.782E+21 5.736E-06 0.000E+00 0.000E+00 0.000E+00 0.000E+00 0.000E+00 0.000E+00 6.559E+01
   5     4.00  593.200  247.7  9.569E+20 5.726E-06 0.000E+00 0.000E+00 0.000E+00 0.000E+00 0.000E+00 0.000E+00 6.035E+01
   6     5.00  515.800  240.9  4.175E+20 5.628E-06 0.000E+00 0.000E+00 0.000E+00 0.000E+00 0.000E+00 0.000E+00 5.405E+01
   7     6.00  446.700  234.1  1.823E+20 5.710E-06 0.000E+00 0.000E+00 0.000E+00 0.000E+00 0.000E+00 0.000E+00 5.067E+01
   8     7.00  385.300  227.3  8.929E+19 5.758E-06 0.000E+00 0.000E+00 0.000E+00 0.000E+00 0.000E+00 0.000E+00 5.593E+01
   9     8.00  330.800  220.6  1.609E+19 5.619E-06 0.000E+00 0.000E+00 0.000E+00 0.000E+00 0.000E+00 0.000E+00 2.371E+01
  10     9.00  282.900  217.2  1.067E+19 5.372E-06 0.000E+00 0.000E+00 0.000E+00 0.000E+00 0.000E+00 0.000E+00 2.682E+01
  11    10.00  241.800  217.2  5.240E+18 5.222E-06 0.000E+00 0.000E+00 0.000E+00 0.000E+00 0.000E+00 0.000E+00 1.540E+01
  12    11.00  206.700  217.2  1.915E+18 5.182E-06 0.000E+00 0.000E+00 0.000E+00 0.000E+00 0.000E+00 0.000E+00 6.584E+00
  13    12.00  176.600  217.2  8.386E+17 5.282E-06 0.000E+00 0.000E+00 0.000E+00 0.000E+00 0.000E+00 0.000E+00 3.375E+00
  14    13.00  151.000  217.2  4.547E+17 5.173E-06 0.000E+00 0.000E+00 0.000E+00 0.000E+00 0.000E+00 0.000E+00 2.140E+00
  15    14.00  129.100  217.2  3.361E+17 5.336E-06 0.000E+00 0.000E+00 0.000E+00 0.000E+00 0.000E+00 0.000E+00 1.850E+00
  16    15.00  110.300  217.2  2.481E+17 6.188E-06 0.000E+00 0.000E+00 0.000E+00 0.000E+00 0.000E+00 0.000E+00 1.598E+00
  17    16.00   94.310  216.6  1.844E+17 8.651E-06 0.000E+00 0.000E+00 0.000E+00 0.000E+00 0.000E+00 0.000E+00 1.487E+00
  18    17.00   80.580  216.0  1.368E+17 1.317E-05 0.000E+00 0.000E+00 0.000E+00 0.000E+00 0.000E+00 0.000E+00 1.383E+00
  19    18.00   68.820  215.4  1.014E+17 1.817E-05 0.000E+00 0.000E+00 0.000E+00 0.000E+00 0.000E+00 0.000E+00 1.286E+00
  20    19.00   58.750  214.8  7.512E+16 2.337E-05 0.000E+00 0.000E+00 0.000E+00 0.000E+00 0.000E+00 0.000E+00 1.196E+00
  21    20.00   50.140  214.2  5.560E+16 2.650E-05 0.000E+00 0.000E+00 0.000E+00 0.000E+00 0.000E+00 0.000E+00 1.112E+00
  22    21.00   42.770  213.6  4.111E+16 2.667E-05 0.000E+00 0.000E+00 0.000E+00 0.000E+00 0.000E+00 0.000E+00 1.034E+00
  23    22.00   36.470  213.0  3.037E+16 2.520E-05 0.000E+00 0.000E+00 0.000E+00 0.000E+00 0.000E+00 0.000E+00 9.618E-01
  24    23.00   31.090  212.4  2.242E+16 2.265E-05 0.000E+00 0.000E+00 0.000E+00 0.000E+00 0.000E+00 0.000E+00 8.945E-01
  25    24.00   26.490  211.8  1.654E+16 1.969E-05 0.000E+00 0.000E+00 0.000E+00 0.000E+00 0.000E+00 0.000E+00 8.318E-01
  26    25.00   22.560  211.2  1.206E+16 1.615E-05 0.000E+00 0.000E+00 0.000E+00 0.000E+00 0.000E+00 0.000E+00 7.657E-01
  27    30.00   10.200  216.0  2.357E+15 4.761E-06 0.000E+00 0.000E+00 0.000E+00 0.000E+00 0.000E+00 0.000E+00 1.883E-01
  28    35.00    4.701  222.3  4.727E+14 9.349E-07 0.000E+00 0.000E+00 0.000E+00 0.000E+00 0.000E+00 0.000E+00 4.082E-02
  29    40.00    2.243  234.7  9.655E+13 1.373E-07 0.000E+00 0.000E+00 0.000E+00 0.000E+00 0.000E+00 0.000E+00 5.049E-03
  30    45.00    1.113  247.0  2.146E+13 1.470E-08 0.000E+00 0.000E+00 0.000E+00 0.000E+00 0.000E+00 0.000E+00 7.639E-04
  31    50.00    0.572  259.3  5.091E+12 3.300E-09 0.000E+00 0.000E+00 0.000E+00 0.000E+00 0.000E+00 0.000E+00 1.345E-04
  32    70.00    0.040  245.4  1.854E+10 1.437E-10 0.000E+00 0.000E+00 0.000E+00 0.000E+00 0.000E+00 0.000E+00 2.099E-05
  33   100.00    0.000  218.5  3.169E+05 1.425E-12 0.000E+00 0.000E+00 0.000E+00 0.000E+00 0.000E+00 0.000E+00 4.603E-07
1
  ATMOSPHERIC PROFILES

  (IF A MOLECULE HAS MORE THAN ONE BAND, THEN THE DATA FOR THE FIRST BAND ARE SHOWN.)

   I      Z       P       T      H2O      O3       CO2      CO       CH4      N2O      O2       NH3      NO       NO2      SO2
         (KM)    (MB)    (K) G/CM**2/KM  (                      ATM CM/KM                                                     )
   1     0.00 1013.000  257.2  1.22E-01 2.08E-03 3.06E+01 1.66E-02 1.76E-01 3.59E-02 2.65E+04 5.02E-05 3.09E-05 2.43E-06 3.43E-05
   2     1.00  887.800  259.1  1.07E-01 1.95E-03 2.47E+01 1.26E-02 1.40E-01 2.95E-02 1.93E+04 3.96E-05 2.52E-05 2.01E-06 2.60E-05
   3     2.00  777.500  255.9  7.40E-02 1.87E-03 1.95E+01 9.80E-03 1.12E-01 2.52E-02 1.52E+04 2.89E-05 2.07E-05 1.69E-06 1.94E-05
   4     3.00  679.800  252.7  4.71E-02 1.89E-03 1.54E+01 7.62E-03 8.97E-02 2.15E-02 1.19E+04 1.86E-05 1.70E-05 1.42E-06 1.35E-05
   5     4.00  593.200  247.7  2.50E-02 1.92E-03 1.19E+01 6.03E-03 7.17E-02 1.85E-02 9.55E+03 1.11E-05 1.39E-05 1.19E-06 9.08E-06
   6     5.00  515.800  240.9  1.07E-02 1.97E-03 9.12E+00 4.91E-03 5.70E-02 1.61E-02 7.85E+03 6.11E-06 1.14E-05 1.01E-06 6.51E-06
   7     6.00  446.700  234.1  4.61E-03 2.01E-03 6.92E+00 3.96E-03 4.49E-02 1.39E-02 6.42E+03 3.38E-06 9.32E-06 8.48E-07 4.74E-06
   8     7.00  385.300  227.3  2.22E-03 2.85E-03 5.21E+00 3.10E-03 3.50E-02 1.20E-02 5.23E+03 1.76E-06 7.55E-06 7.09E-07 3.58E-06
   9     8.00  330.800  220.6  3.93E-04 3.53E-03 3.89E+00 2.37E-03 2.71E-02 1.03E-02 4.22E+03 8.78E-07 6.08E-06 5.90E-07 2.73E-06
  10     9.00  282.900  217.2  2.59E-04 5.93E-03 2.93E+00 1.71E-03 2.07E-02 8.50E-03 3.19E+03 3.86E-07 4.83E-06 4.85E-07 2.10E-06
  11    10.00  241.800  217.2  1.28E-04 6.78E-03 2.26E+00 1.18E-03 1.55E-02 6.70E-03 2.26E+03 1.57E-07 3.80E-06 4.00E-07 1.59E-06
  12    11.00  206.700  217.2  4.67E-05 6.33E-03 1.74E+00 8.06E-04 1.15E-02 5.21E-03 1.60E+03 6.33E-08 2.99E-06 3.54E-07 1.23E-06
  13    12.00  176.600  217.2  2.05E-05 5.79E-03 1.34E+00 5.33E-04 8.61E-03 4.12E-03 1.14E+03 2.76E-08 2.35E-06 3.41E-07 9.73E-07
  14    13.00  151.000  217.2  1.12E-05 7.53E-03 1.03E+00 3.30E-04 6.43E-03 3.23E-03 8.06E+02 1.03E-08 1.85E-06 3.88E-07 7.93E-07
  15    14.00  129.100  217.2  8.28E-06 8.34E-03 7.91E-01 1.97E-04 4.79E-03 2.55E-03 5.72E+02 2.76E-09 1.43E-06 5.24E-07 6.53E-07
  16    15.00  110.300  217.2  6.13E-06 8.90E-03 6.09E-01 1.17E-04 3.54E-03 2.00E-03 4.06E+02 8.38E-10 1.08E-06 9.61E-07 5.43E-07
  17    16.00   94.310  216.6  4.56E-06 8.96E-03 4.67E-01 6.97E-05 2.62E-03 1.55E-03 2.91E+02 2.98E-10 8.08E-07 1.44E-06 4.46E-07
  18    17.00   80.580  216.0  3.39E-06 9.14E-03 3.58E-01 4.31E-05 1.93E-03 1.16E-03 2.09E+02 1.17E-10 5.98E-07 1.89E-06 3.42E-07
  19    18.00   68.820  215.4  2.51E-06 9.48E-03 2.74E-01 2.59E-05 1.41E-03 8.46E-04 1.49E+02 5.37E-11 4.48E-07 2.26E-06 2.50E-07
  20    19.00   58.750  214.8  1.86E-06 9.65E-03 2.10E-01 1.55E-05 1.01E-03 5.80E-04 1.07E+02 2.39E-11 3.59E-07 2.50E-06 1.70E-07
  21    20.00   50.140  214.2  1.38E-06 9.26E-03 1.60E-01 1.01E-05 7.22E-04 4.12E-04 7.64E+01 1.09E-11 2.95E-07 2.63E-06 1.12E-07
  22    21.00   42.770  213.6  1.02E-06 8.04E-03 1.22E-01 7.13E-06 5.15E-04 2.80E-04 5.46E+01 6.53E-12 2.51E-07 2.68E-06 7.68E-08
  23    22.00   36.470  213.0  7.56E-07 6.78E-03 9.35E-02 5.41E-06 3.70E-04 2.04E-04 3.89E+01 4.39E-12 2.19E-07 2.64E-06 5.37E-08
  24    23.00   31.090  212.4  5.59E-07 5.83E-03 7.13E-02 4.36E-06 2.66E-04 1.50E-04 2.78E+01 3.05E-12 2.01E-07 2.53E-06 3.99E-08
  25    24.00   26.490  211.8  4.13E-07 4.78E-03 5.44E-02 3.54E-06 1.90E-04 1.12E-04 1.98E+01 2.07E-12 1.98E-07 2.41E-06 3.00E-08
  26    25.00   22.560  211.2  3.01E-07 3.91E-03 4.15E-02 2.91E-06 1.36E-04 8.31E-05 1.41E+01 1.32E-12 2.36E-07 2.36E-06 2.26E-08
  27    30.00   10.200  216.0  6.07E-08 1.38E-03 1.13E-02 9.30E-07 3.00E-05 2.04E-05 2.27E+00 1.63E-13 2.48E-07 1.25E-06 5.88E-09
  28    35.00    4.701  222.3  1.26E-08 4.92E-04 3.22E-03 3.53E-07 6.64E-06 4.23E-06 3.71E-01 1.15E-14 2.18E-07 4.90E-07 1.75E-09
  29    40.00    2.243  234.7  2.71E-09 1.44E-04 1.00E-03 1.79E-07 1.39E-06 7.26E-07 5.93E-02 4.89E-16 1.07E-07 9.17E-08 6.98E-10
  30    45.00    1.113  247.0  6.31E-10 3.27E-05 3.31E-04 1.11E-07 2.70E-07 1.08E-07 1.04E-02 1.39E-17 3.75E-08 9.37E-09 3.88E-10
  31    50.00    0.572  259.3  1.56E-10 7.18E-06 1.16E-04 6.63E-08 5.52E-08 1.46E-08 2.01E-03 1.00E-18 1.16E-08 1.36E-09 2.50E-10
  32    70.00    0.040  245.4  5.78E-13 3.60E-08 1.27E-06 3.26E-09 4.52E-10 1.01E-10 7.41E-06 3.00E-21 2.31E-10 1.83E-11 1.09E-11
  33   100.00    0.000  218.5  9.96E-18 5.95E-11 3.25E-10 1.50E-11 1.59E-13 7.65E-14 4.28E-10 4.80E-25 4.28E-11 2.62E-14 3.26E-16


 CASE 3A: GIVEN H1,H2=SPACE,ANGLE



 SLANT PATH PARAMETERS IN STANDARD FORM

          H1      =      0.000 KM
          H2      =    100.000 KM
          ANGLE   =      0.000 DEG
          PHI     =    180.000 DEG
          HMIN    =      0.000 KM
          LEN     =          0
1CALCULATION OF THE REFRACTED PATH THROUGH THE ATMOSPHERE


  I       ALTITUDE        THETA  DRANGE    RANGE    DBETA     BETA     PHI     DBEND  BENDING    PBAR    TBAR   RHOBAR
      FROM       TO
      (KM)      (KM)      (DEG)    (KM)     (KM)    (DEG)    (DEG)    (DEG)    (DEG)    (DEG)    (MB)    (K)  (GM CM-3)

          H1 TO H2

  1    0.000    1.000    0.000    1.000    1.000    0.000    0.000  180.000    0.000    0.000  950.477  258.13 1.28E-03
  2    1.000    2.000    0.000    1.000    2.000    0.000    0.000  180.000    0.000    0.000  832.536  257.53 1.12E-03
  3    2.000    3.000    0.000    1.000    3.000    0.000    0.000  180.000    0.000    0.000  728.548  254.33 9.97E-04
  4    3.000    4.000    0.000    1.000    4.000    0.000    0.000  180.000    0.000    0.000  636.356  250.24 8.85E-04
  5    4.000    5.000    0.000    1.000    5.000    0.000    0.000  180.000    0.000    0.000  554.321  244.35 7.89E-04
  6    5.000    6.000    0.000    1.000    6.000    0.000    0.000  180.000    0.000    0.000  481.085  237.55 7.05E-04
  7    6.000    7.000    0.000    1.000    7.000    0.000    0.000  180.000    0.000    0.000  415.849  230.75 6.27E-04
  8    7.000    8.000    0.000    1.000    8.000    0.000    0.000  180.000    0.000    0.000  357.914  224.00 5.56E-04
  9    8.000    9.000    0.000    1.000    9.000    0.000    0.000  180.000    0.000    0.000  306.788  218.94 4.87E-04
 10    9.000   10.000    0.000    1.000   10.000    0.000    0.000  180.000    0.000    0.000  262.350  217.20 4.20E-04
 11   10.000   11.000    0.000    1.000   11.000    0.000    0.000  180.000    0.000    0.000  224.250  217.20 3.59E-04
 12   11.000   12.000    0.000    1.000   12.000    0.000    0.000  180.000    0.000    0.000  191.650  217.20 3.07E-04
 13   12.000   13.000    0.000    1.000   13.000    0.000    0.000  180.000    0.000    0.000  163.800  217.20 2.62E-04
 14   13.000   14.000    0.000    1.000   14.000    0.000    0.000  180.000    0.000    0.000  140.050  217.20 2.24E-04
 15   14.000   15.000    0.000    1.000   15.000    0.000    0.000  180.000    0.000    0.000  119.700  217.20 1.92E-04
 16   15.000   16.000    0.000    1.000   16.000    0.000    0.000  180.000    0.000    0.000  102.301  216.91 1.64E-04
 17   16.000   17.000    0.000    1.000   17.000    0.000    0.000  180.000    0.000    0.000   87.442  216.31 1.41E-04
 18   17.000   18.000    0.000    1.000   18.000    0.000    0.000  180.000    0.000    0.000   74.697  215.71 1.20E-04
 19   18.000   19.000    0.000    1.000   19.000    0.000    0.000  180.000    0.000    0.000   63.783  215.11 1.03E-04
 20   19.000   20.000    0.000    1.000   20.000    0.000    0.000  180.000    0.000    0.000   54.443  214.51 8.82E-05
 21   20.000   21.000    0.000    1.000   21.000    0.000    0.000  180.000    0.000    0.000   46.453  213.91 7.55E-05
 22   21.000   22.000    0.000    1.000   22.000    0.000    0.000  180.000    0.000    0.000   39.619  213.31 6.46E-05
 23   22.000   23.000    0.000    1.000   23.000    0.000    0.000  180.000    0.000    0.000   33.779  212.71 5.52E-05
 24   23.000   24.000    0.000    1.000   24.000    0.000    0.000  180.000    0.000    0.000   28.789  212.11 4.72E-05
 25   24.000   25.000    0.000    1.000   25.000    0.000    0.000  180.000    0.000    0.000   24.524  211.51 4.03E-05
 26   25.000   30.000    0.000    5.000   30.000    0.000    0.000  180.000    0.000    0.000   16.403  213.27 2.54E-05
 27   30.000   35.000    0.000    5.000   35.000    0.000    0.000  180.000    0.000    0.000    7.463  218.72 1.13E-05
 28   35.000   40.000    0.000    5.000   40.000    0.000    0.000  180.000    0.000    0.000    3.483  227.63 5.08E-06
 29   40.000   45.000    0.000    5.000   45.000    0.000    0.000  180.000    0.000    0.000    1.683  240.03 2.34E-06
 30   45.000   50.000    0.000    5.000   50.000    0.000    0.000  180.000    0.000    0.000    0.845  252.37 1.12E-06
 31   50.000   70.000    0.000   20.000   70.000    0.000    0.000  180.000    0.000    0.000    0.304  255.02 2.73E-07
 32   70.000  100.000    0.000   30.000  100.000    0.000    0.000  180.000    0.000    0.000    0.020  239.45 1.27E-08




 CUMULATIVE ABSORBER AMOUNTS FOR THE PATH FROM H1 TO Z

  J     Z        TBAR     HNO3        O3 UV      CNTMSLF1   CNTMSLF2    CNTMFRN      O2
       (KM)       (K)   (ATM CM)    (ATM CM)    (MOL CM-2)  (MOL CM-2)  (MOL CM-2)(MOL CM-2)

  1    1.000   258.13   5.407E-06   1.912E-03   6.469E+18   6.469E+18   4.295E+21   3.777E+04
  2    2.000   257.53   1.100E-05   3.825E-03   1.159E+19   1.159E+19   7.650E+21   6.911E+04
  3    3.000   254.33   1.670E-05   5.783E-03   1.451E+19   1.451E+19   9.894E+21   9.554E+04
  4    4.000   250.24   2.244E-05   7.835E-03   1.582E+19   1.582E+19   1.122E+22   1.180E+05
  5    5.000   244.35   2.811E-05   9.981E-03   1.622E+19   1.622E+19   1.187E+22   1.372E+05
  6    6.000   237.55   3.378E-05   1.222E-02   1.632E+19   1.632E+19   1.216E+22   1.538E+05
  7    7.000   230.75   3.951E-05   1.502E-02   1.634E+19   1.634E+19   1.229E+22   1.680E+05
  8    8.000   224.00   4.520E-05   1.877E-02   1.634E+19   1.634E+19   1.233E+22   1.802E+05
  9    9.000   218.94   5.070E-05   2.456E-02   1.634E+19   1.634E+19   1.234E+22   1.905E+05
 10   10.000   217.20   5.599E-05   3.274E-02   1.635E+19   1.635E+19   1.235E+22   1.992E+05
 11   11.000   217.20   6.120E-05   4.173E-02   1.635E+19   1.635E+19   1.235E+22   2.063E+05
 12   12.000   217.20   6.643E-05   5.059E-02   1.635E+19   1.635E+19   1.235E+22   2.122E+05
 13   13.000   217.20   7.166E-05   6.106E-02   1.635E+19   1.635E+19   1.235E+22   2.172E+05
 14   14.000   217.20   7.691E-05   7.436E-02   1.635E+19   1.635E+19   1.235E+22   2.213E+05
 15   15.000   217.20   8.267E-05   8.977E-02   1.635E+19   1.635E+19   1.236E+22   2.248E+05
 16   16.000   216.91   9.009E-05   1.068E-01   1.635E+19   1.635E+19   1.236E+22   2.277E+05
 17   17.000   216.31   1.010E-04   1.251E-01   1.635E+19   1.635E+19   1.236E+22   2.302E+05
 18   18.000   215.71   1.167E-04   1.452E-01   1.635E+19   1.635E+19   1.236E+22   2.323E+05
 19   19.000   215.11   1.375E-04   1.672E-01   1.635E+19   1.635E+19   1.236E+22   2.341E+05
 20   20.000   214.51   1.624E-04   1.903E-01   1.635E+19   1.635E+19   1.236E+22   2.356E+05
 21   21.000   213.91   1.890E-04   2.127E-01   1.635E+19   1.635E+19   1.236E+22   2.369E+05
 22   22.000   213.31   2.149E-04   2.332E-01   1.635E+19   1.635E+19   1.236E+22   2.380E+05
 23   23.000   212.71   2.388E-04   2.517E-01   1.635E+19   1.635E+19   1.236E+22   2.389E+05
 24   24.000   212.11   2.599E-04   2.683E-01   1.635E+19   1.635E+19   1.236E+22   2.397E+05
 25   25.000   211.51   2.778E-04   2.828E-01   1.635E+19   1.635E+19   1.236E+22   2.403E+05
 26   30.000   213.27   3.244E-04   3.319E-01   1.635E+19   1.635E+19   1.236E+22   2.424E+05
 27   35.000   218.72   3.362E-04   3.570E-01   1.635E+19   1.635E+19   1.236E+22   2.434E+05
 28   40.000   227.63   3.383E-04   3.689E-01   1.635E+19   1.635E+19   1.236E+22   2.438E+05
 29   45.000   240.03   3.385E-04   3.735E-01   1.635E+19   1.635E+19   1.236E+22   2.440E+05
 30   50.000   252.37   3.386E-04   3.750E-01   1.635E+19   1.635E+19   1.236E+22   2.441E+05
 31   70.000   255.02   3.386E-04   3.757E-01   1.635E+19   1.635E+19   1.236E+22   2.441E+05
 32  100.000   239.45   3.386E-04   3.757E-01   1.635E+19   1.635E+19   1.236E+22   2.441E+05



  J     Z       N2 CONT    MOL SCAT       AER 1       AER 2       AER 3       AER 4       CIRRUS
       (KM)

  1    1.000   7.470E-01   9.911E-01   0.000E+00   0.000E+00   0.000E+00   0.000E+00   0.000E+00
  2    2.000   1.322E+00   1.861E+00   0.000E+00   0.000E+00   0.000E+00   0.000E+00   0.000E+00
  3    3.000   1.771E+00   2.633E+00   0.000E+00   0.000E+00   0.000E+00   0.000E+00   0.000E+00
  4    4.000   2.122E+00   3.317E+00   0.000E+00   0.000E+00   0.000E+00   0.000E+00   0.000E+00
  5    5.000   2.398E+00   3.928E+00   0.000E+00   0.000E+00   0.000E+00   0.000E+00   0.000E+00
  6    6.000   2.614E+00   4.473E+00   0.000E+00   0.000E+00   0.000E+00   0.000E+00   0.000E+00
  7    7.000   2.783E+00   4.958E+00   0.000E+00   0.000E+00   0.000E+00   0.000E+00   0.000E+00
  8    8.000   2.914E+00   5.388E+00   0.000E+00   0.000E+00   0.000E+00   0.000E+00   0.000E+00
  9    9.000   3.014E+00   5.765E+00   0.000E+00   0.000E+00   0.000E+00   0.000E+00   0.000E+00
 10   10.000   3.088E+00   6.090E+00   0.000E+00   0.000E+00   0.000E+00   0.000E+00   0.000E+00
 11   11.000   3.142E+00   6.368E+00   0.000E+00   0.000E+00   0.000E+00   0.000E+00   0.000E+00
 12   12.000   3.181E+00   6.606E+00   0.000E+00   0.000E+00   0.000E+00   0.000E+00   0.000E+00
 13   13.000   3.210E+00   6.808E+00   0.000E+00   0.000E+00   0.000E+00   0.000E+00   0.000E+00
 14   14.000   3.231E+00   6.982E+00   0.000E+00   0.000E+00   0.000E+00   0.000E+00   0.000E+00
 15   15.000   3.246E+00   7.130E+00   0.000E+00   0.000E+00   0.000E+00   0.000E+00   0.000E+00
 16   16.000   3.257E+00   7.257E+00   0.000E+00   0.000E+00   0.000E+00   0.000E+00   0.000E+00
 17   17.000   3.265E+00   7.366E+00   0.000E+00   0.000E+00   0.000E+00   0.000E+00   0.000E+00
 18   18.000   3.271E+00   7.459E+00   0.000E+00   0.000E+00   0.000E+00   0.000E+00   0.000E+00
 19   19.000   3.276E+00   7.539E+00   0.000E+00   0.000E+00   0.000E+00   0.000E+00   0.000E+00
 20   20.000   3.279E+00   7.607E+00   0.000E+00   0.000E+00   0.000E+00   0.000E+00   0.000E+00
 21   21.000   3.281E+00   7.665E+00   0.000E+00   0.000E+00   0.000E+00   0.000E+00   0.000E+00
 22   22.000   3.283E+00   7.715E+00   0.000E+00   0.000E+00   0.000E+00   0.000E+00   0.000E+00
 23   23.000   3.284E+00   7.758E+00   0.000E+00   0.000E+00   0.000E+00   0.000E+00   0.000E+00
 24   24.000   3.285E+00   7.795E+00   0.000E+00   0.000E+00   0.000E+00   0.000E+00   0.000E+00
 25   25.000   3.286E+00   7.826E+00   0.000E+00   0.000E+00   0.000E+00   0.000E+00   0.000E+00
 26   30.000   3.287E+00   7.924E+00   0.000E+00   0.000E+00   0.000E+00   0.000E+00   0.000E+00
 27   35.000   3.288E+00   7.968E+00   0.000E+00   0.000E+00   0.000E+00   0.000E+00   0.000E+00
 28   40.000   3.288E+00   7.988E+00   0.000E+00   0.000E+00   0.000E+00   0.000E+00   0.000E+00
 29   45.000   3.288E+00   7.997E+00   0.000E+00   0.000E+00   0.000E+00   0.000E+00   0.000E+00
 30   50.000   3.288E+00   8.001E+00   0.000E+00   0.000E+00   0.000E+00   0.000E+00   0.000E+00
 31   70.000   3.288E+00   8.005E+00   0.000E+00   0.000E+00   0.000E+00   0.000E+00   0.000E+00
 32  100.000   3.288E+00   8.006E+00   0.000E+00   0.000E+00   0.000E+00   0.000E+00   0.000E+00



   J    Z       H2O       O3        CO2       CO        CH4       N2O       O2        NH3       NO        NO2       SO2
      (KM)   (G/CM**2)  (                                            ATM CM                                             )

   1    1.00  1.14E-01  2.01E-03  2.76E+01  1.45E-02  1.57E-01  3.26E-02  2.27E+04  4.47E-05  2.80E-05  2.21E-06  2.99E-05
   2    2.00  2.04E-01  3.92E-03  4.96E+01  2.56E-02  2.82E-01  5.99E-02  3.99E+04  7.86E-05  5.09E-05  4.06E-06  5.24E-05
   3    3.00  2.64E-01  5.80E-03  6.69E+01  3.43E-02  3.83E-01  8.32E-02  5.33E+04  1.02E-04  6.96E-05  5.61E-06  6.87E-05
   4    4.00  2.98E-01  7.71E-03  8.05E+01  4.11E-02  4.63E-01  1.03E-01  6.40E+04  1.17E-04  8.51E-05  6.91E-06  7.98E-05
   5    5.00  3.15E-01  9.65E-03  9.10E+01  4.65E-02  5.27E-01  1.20E-01  7.27E+04  1.25E-04  9.77E-05  8.01E-06  8.75E-05
   6    6.00  3.23E-01  1.16E-02  9.89E+01  5.09E-02  5.78E-01  1.35E-01  7.98E+04  1.29E-04  1.08E-04  8.94E-06  9.31E-05
   7    7.00  3.26E-01  1.41E-02  1.05E+02  5.44E-02  6.18E-01  1.48E-01  8.56E+04  1.32E-04  1.16E-04  9.71E-06  9.72E-05
   8    8.00  3.27E-01  1.73E-02  1.09E+02  5.72E-02  6.49E-01  1.60E-01  9.03E+04  1.33E-04  1.23E-04  1.04E-05  1.00E-04
   9    9.00  3.27E-01  2.20E-02  1.13E+02  5.92E-02  6.72E-01  1.69E-01  9.40E+04  1.34E-04  1.29E-04  1.09E-05  1.03E-04
  10   10.00  3.27E-01  2.83E-02  1.15E+02  6.06E-02  6.90E-01  1.76E-01  9.67E+04  1.34E-04  1.33E-04  1.13E-05  1.05E-04
  11   11.00  3.27E-01  3.49E-02  1.17E+02  6.16E-02  7.04E-01  1.82E-01  9.86E+04  1.34E-04  1.36E-04  1.17E-05  1.06E-04
  12   12.00  3.28E-01  4.10E-02  1.19E+02  6.23E-02  7.14E-01  1.87E-01  9.99E+04  1.34E-04  1.39E-04  1.21E-05  1.07E-04
  13   13.00  3.28E-01  4.76E-02  1.20E+02  6.27E-02  7.21E-01  1.91E-01  1.01E+05  1.34E-04  1.41E-04  1.24E-05  1.08E-04
  14   14.00  3.28E-01  5.55E-02  1.21E+02  6.29E-02  7.27E-01  1.94E-01  1.02E+05  1.34E-04  1.43E-04  1.29E-05  1.09E-04
  15   15.00  3.28E-01  6.42E-02  1.22E+02  6.31E-02  7.31E-01  1.96E-01  1.02E+05  1.34E-04  1.44E-04  1.36E-05  1.09E-04
  16   16.00  3.28E-01  7.31E-02  1.22E+02  6.32E-02  7.34E-01  1.98E-01  1.02E+05  1.34E-04  1.45E-04  1.48E-05  1.10E-04
  17   17.00  3.28E-01  8.21E-02  1.23E+02  6.32E-02  7.36E-01  1.99E-01  1.03E+05  1.34E-04  1.46E-04  1.65E-05  1.10E-04
  18   18.00  3.28E-01  9.15E-02  1.23E+02  6.33E-02  7.38E-01  2.00E-01  1.03E+05  1.34E-04  1.46E-04  1.86E-05  1.10E-04
  19   19.00  3.28E-01  1.01E-01  1.23E+02  6.33E-02  7.39E-01  2.01E-01  1.03E+05  1.34E-04  1.47E-04  2.09E-05  1.11E-04
  20   20.00  3.28E-01  1.10E-01  1.23E+02  6.33E-02  7.40E-01  2.01E-01  1.03E+05  1.34E-04  1.47E-04  2.35E-05  1.11E-04
  21   21.00  3.28E-01  1.19E-01  1.24E+02  6.33E-02  7.41E-01  2.01E-01  1.03E+05  1.34E-04  1.47E-04  2.62E-05  1.11E-04
  22   22.00  3.28E-01  1.26E-01  1.24E+02  6.33E-02  7.41E-01  2.02E-01  1.03E+05  1.34E-04  1.47E-04  2.88E-05  1.11E-04
  23   23.00  3.28E-01  1.33E-01  1.24E+02  6.33E-02  7.41E-01  2.02E-01  1.03E+05  1.34E-04  1.48E-04  3.14E-05  1.11E-04
  24   24.00  3.28E-01  1.38E-01  1.24E+02  6.33E-02  7.42E-01  2.02E-01  1.03E+05  1.34E-04  1.48E-04  3.39E-05  1.11E-04
  25   25.00  3.28E-01  1.42E-01  1.24E+02  6.33E-02  7.42E-01  2.02E-01  1.03E+05  1.34E-04  1.48E-04  3.63E-05  1.11E-04
  26   30.00  3.28E-01  1.55E-01  1.24E+02  6.33E-02  7.42E-01  2.02E-01  1.03E+05  1.34E-04  1.49E-04  4.50E-05  1.11E-04
  27   35.00  3.28E-01  1.59E-01  1.24E+02  6.33E-02  7.42E-01  2.02E-01  1.03E+05  1.34E-04  1.50E-04  4.91E-05  1.11E-04
  28   40.00  3.28E-01  1.60E-01  1.24E+02  6.33E-02  7.42E-01  2.02E-01  1.03E+05  1.34E-04  1.51E-04  5.03E-05  1.11E-04
  29   45.00  3.28E-01  1.61E-01  1.24E+02  6.33E-02  7.42E-01  2.02E-01  1.03E+05  1.34E-04  1.51E-04  5.04E-05  1.11E-04
  30   50.00  3.28E-01  1.61E-01  1.24E+02  6.33E-02  7.42E-01  2.02E-01  1.03E+05  1.34E-04  1.52E-04  5.05E-05  1.11E-04
  31   70.00  3.28E-01  1.61E-01  1.24E+02  6.33E-02  7.42E-01  2.02E-01  1.03E+05  1.34E-04  1.52E-04  5.05E-05  1.11E-04
  32  100.00  3.28E-01  1.61E-01  1.24E+02  6.33E-02  7.42E-01  2.02E-01  1.03E+05  1.34E-04  1.52E-04  5.05E-05  1.11E-04


0SUMMARY OF THE GEOMETRY CALCULATION

          H1      =      0.000 KM
          H2      =    100.000 KM
          ANGLE   =      0.000 DEG
          RANGE   =    100.000 KM
          BETA    =      0.000 DEG
          PHI     =    180.000 DEG
          HMIN    =      0.000 KM
          BENDING =      0.000 DEG
          LEN     =          0




 EQUIVALENT SEA LEVEL TOTAL ABSORBER AMOUNTS

                 HNO3      O3 UV       CNTMSLF1    CNTMSLF2   CNTMFRN
               (ATM CM)   (ATM CM)     (MOL CM-2)  (MOL CM-2)  (MOL CM-2)  (MOL CM-2)

             3.386E-04   3.757E-01   1.635E+19   1.635E+19   1.236E+22


              N2 CONT    MOL SCAT       AER 1       AER 2       AER 3       AER 4     CIRRUS      MEAN RH
                                                                                                  (PRCNT)

             3.288E+00   8.006E+00   0.000E+00   0.000E+00   0.000E+00   0.000E+00   0.000E+00        0.00


                 H2O        O3          CO2         CO          CH4         N2O          O2
              (G/CM**2)     (                           ATM CM                            )

             3.276E-01   1.608E-01   1.240E+02   6.334E-02   7.422E-01   2.024E-01   1.033E+05

                 NH3        NO          NO2         SO2
                 (               ATM CM               )

             1.342E-04   1.516E-04   5.046E-05   1.112E-04
1
   FREQ WAVELENGTH  TOTAL     H2O     CO2+     OZONE    TRACE  N2 CONT  H2O CONT MOL SCAT  AER-HYD  HNO3    AER-HYD  INTEGRATED

   1/CM  MICRONS    TRANS    TRANS    TRANS    TRANS    TRANS   TRANS    TRANS    TRANS     TRANS   TRANS    ABS     ABSORPTION

  10000.   1.000   0.9867   0.9953   1.0000   1.0000   1.0000   1.0000   0.9999   0.9914   1.0000   1.0000   0.0000       0.333
  10050.   0.995   0.9887   0.9975   1.0000   1.0000   1.0000   1.0000   1.0000   0.9912   1.0000   1.0000   0.0000       0.899
  10100.   0.990   0.9818   0.9908   1.0000   1.0000   1.0000   1.0000   0.9999   0.9911   1.0000   1.0000   0.0000       1.808
  10150.   0.985   0.9711   0.9803   1.0000   1.0000   1.0000   1.0000   0.9997   0.9909   1.0000   1.0000   0.0000       3.254
  10200.   0.980   0.9490   0.9588   1.0000   1.0000   1.0000   1.0000   0.9992   0.9907   1.0000   1.0000   0.0000       5.802
  10250.   0.976   0.9067   0.9167   1.0000   1.0000   1.0000   1.0000   0.9986   0.9905   1.0000   1.0000   0.0000      10.469
  10300.   0.971   0.9404   0.9508   1.0000   1.0000   1.0000   1.0000   0.9987   0.9903   1.0000   1.0000   0.0000      13.452
  10350.   0.966   0.8648   0.8756   1.0000   1.0000   1.0000   1.0000   0.9976   0.9901   1.0000   1.0000   0.0000      20.209
  10400.   0.962   0.8251   0.8371   1.0000   1.0000   1.0000   1.0000   0.9957   0.9899   1.0000   1.0000   0.0000      28.953
  10450.   0.957   0.8131   0.8278   1.0000   1.0000   1.0000   1.0000   0.9924   0.9897   1.0000   1.0000   0.0000      38.299
  10500.   0.952   0.7569   0.7745   1.0000   1.0000   1.0000   1.0000   0.9876   0.9895   1.0000   1.0000   0.0000      50.455
  10550.   0.948   0.7579   0.7783   1.0000   1.0000   1.0000   1.0000   0.9843   0.9893   1.0000   1.0000   0.0000      62.559
  10600.   0.943   0.6980   0.7180   1.0000   1.0000   1.0000   1.0000   0.9828   0.9891   1.0000   1.0000   0.0000      77.658
  10650.   0.939   0.7717   0.7947   1.0000   1.0000   1.0000   1.0000   0.9819   0.9889   1.0000   1.0000   0.0000      89.074
  10700.   0.935   0.5891   0.6112   1.0000   1.0000   1.0000   1.0000   0.9748   0.9887   1.0000   1.0000   0.0000     109.621
  10750.   0.930   0.8110   0.8286   1.0000   1.0000   1.0000   1.0000   0.9902   0.9885   1.0000   1.0000   0.0000     119.071
  10800.   0.926   0.9193   0.9318   1.0000   1.0000   1.0000   1.0000   0.9983   0.9883   1.0000   1.0000   0.0000     123.105
  10850.   0.922   0.9321   0.9443   1.0000   1.0000   1.0000   1.0000   0.9990   0.9881   1.0000   1.0000   0.0000     126.499
  10900.   0.917   0.8881   0.9005   1.0000   1.0000   1.0000   1.0000   0.9983   0.9879   1.0000   1.0000   0.0000     132.095
  10950.   0.913   0.8602   0.8730   1.0000   1.0000   1.0000   1.0000   0.9978   0.9876   1.0000   1.0000   0.0000     139.083
  11000.   0.909   0.8764   0.8897   1.0000   1.0000   1.0000   1.0000   0.9976   0.9874   1.0000   1.0000   0.0000     145.261
  11050.   0.905   0.9400   0.9540   1.0000   1.0000   1.0000   1.0000   0.9981   0.9872   1.0000   1.0000   0.0000     148.260
  11100.   0.901   0.8754   0.8896   1.0000   1.0000   1.0000   1.0000   0.9970   0.9869   1.0000   1.0000   0.0000     154.490
  11150.   0.897   0.9071   0.9211   1.0000   1.0000   1.0000   1.0000   0.9981   0.9867   1.0000   1.0000   0.0000     159.134
  11200.   0.893   0.9692   0.9829   1.0000   1.0000   1.0000   1.0000   0.9996   0.9865   1.0000   1.0000   0.0000     160.674
  11250.   0.889   0.9827   0.9965   1.0000   1.0000   1.0000   1.0000   0.9999   0.9862   1.0000   1.0000   0.0000     161.537
  11300.   0.885   0.9831   0.9971   1.0000   1.0000   1.0000   1.0000   1.0000   0.9860   1.0000   1.0000   0.0000     162.380
  11350.   0.881   0.9834   0.9977   1.0000   1.0000   1.0000   1.0000   1.0000   0.9857   1.0000   1.0000   0.0000     163.209
  11400.   0.877   0.9848   0.9993   1.0000   1.0000   1.0000   1.0000   1.0000   0.9855   1.0000   1.0000   0.0000     163.969
  11450.   0.873   0.9850   0.9998   1.0000   1.0000   1.0000   1.0000   1.0000   0.9852   1.0000   1.0000   0.0000     164.717
  11500.   0.870   0.9849   0.9999   1.0000   1.0000   1.0000   1.0000   1.0000   0.9850   1.0000   1.0000   0.0000     165.473
  11550.   0.866   0.9847   1.0000   1.0000   1.0000   1.0000   1.0000   1.0000   0.9847   1.0000   1.0000   0.0000     166.239
  11600.   0.862   0.9842   0.9998   1.0000   1.0000   1.0000   1.0000   1.0000   0.9844   1.0000   1.0000   0.0000     167.030
  11650.   0.858   0.9827   0.9985   1.0000   1.0000   1.0000   1.0000   1.0000   0.9842   1.0000   1.0000   0.0000     167.896
  11700.   0.855   0.9784   0.9945   1.0000   1.0000   1.0000   1.0000   1.0000   0.9839   1.0000   1.0000   0.0000     168.975
  11750.   0.851   0.9760   0.9923   1.0000   1.0000   1.0000   1.0000   1.0000   0.9836   1.0000   1.0000   0.0000     170.177
  11800.   0.847   0.9795   0.9962   1.0000   1.0000   1.0000   1.0000   1.0000   0.9833   1.0000   1.0000   0.0000     171.199
  11850.   0.844   0.9759   0.9927   1.0000   1.0000   1.0000   1.0000   0.9999   0.9830   1.0000   1.0000   0.0000     172.406
  11900.   0.840   0.9694   0.9865   1.0000   1.0000   1.0000   1.0000   0.9999   0.9828   1.0000   1.0000   0.0000     173.938
  11950.   0.837   0.9618   0.9791   1.0000   1.0000   1.0000   1.0000   0.9998   0.9825   1.0000   1.0000   0.0000     175.848
  12000.   0.833   0.9547   0.9724   1.0000   1.0000   1.0000   1.0000   0.9997   0.9822   1.0000   1.0000   0.0000     178.112
  12050.   0.830   0.9486   0.9667   1.0000   1.0000   1.0000   1.0000   0.9994   0.9819   1.0000   1.0000   0.0000     180.681
  12100.   0.826   0.9550   0.9735   1.0000   1.0000   1.0000   1.0000   0.9994   0.9816   1.0000   1.0000   0.0000     182.932
  12150.   0.823   0.9068   0.9249   1.0000   1.0000   1.0000   1.0000   0.9992   0.9813   1.0000   1.0000   0.0000     187.590
  12200.   0.820   0.9341   0.9531   1.0000   1.0000   1.0000   1.0000   0.9991   0.9809   1.0000   1.0000   0.0000     190.886
  12250.   0.816   0.9180   0.9370   1.0000   1.0000   1.0000   1.0000   0.9990   0.9806   1.0000   1.0000   0.0000     194.988
  12300.   0.813   0.9514   0.9708   1.0000   1.0000   1.0000   1.0000   0.9996   0.9803   1.0000   1.0000   0.0000     197.420
  12350.   0.810   0.9675   0.9873   1.0000   1.0000   1.0000   1.0000   0.9999   0.9800   1.0000   1.0000   0.0000     199.045
  12400.   0.806   0.9717   0.9919   1.0000   1.0000   1.0000   1.0000   1.0000   0.9797   1.0000   1.0000   0.0000     200.461
  12450.   0.803   0.9628   0.9831   1.0000   1.0000   1.0000   1.0000   0.9999   0.9793   1.0000   1.0000   0.0000     202.323
1
   FREQ WAVELENGTH  TOTAL     H2O     CO2+     OZONE    TRACE  N2 CONT  H2O CONT MOL SCAT  AER-HYD  HNO3    AER-HYD  INTEGRATED

   1/CM  MICRONS    TRANS    TRANS    TRANS    TRANS    TRANS   TRANS    TRANS    TRANS     TRANS   TRANS    ABS     ABSORPTION

  12500.   0.800   0.9631   0.9839   1.0000   1.0000   1.0000   1.0000   0.9999   0.9790   1.0000   1.0000   0.0000     204.166
  12550.   0.797   0.9586   0.9796   1.0000   1.0000   1.0000   1.0000   0.9999   0.9787   1.0000   1.0000   0.0000     206.237
  12600.   0.794   0.9706   0.9922   1.0000   1.0000   1.0000   1.0000   0.9999   0.9783   1.0000   1.0000   0.0000     207.705
  12650.   0.791   0.9610   0.9828   1.0000   1.0000   1.0000   1.0000   0.9999   0.9780   1.0000   1.0000   0.0000     209.654
  12700.   0.787   0.9692   0.9915   1.0000   1.0000   1.0000   1.0000   1.0000   0.9776   1.0000   1.0000   0.0000     211.192
  12750.   0.784   0.9765   0.9992   1.0000   1.0000   1.0000   1.0000   1.0000   0.9773   1.0000   1.0000   0.0000     212.369
  12800.   0.781   0.9767   0.9998   1.0000   1.0000   1.0000   1.0000   1.0000   0.9769   1.0000   1.0000   0.0000     213.532
  12850.   0.778   0.9764   0.9998   1.0000   1.0000   1.0000   1.0000   1.0000   0.9766   1.0000   1.0000   0.0000     214.714
  12900.   0.775   0.9757   0.9999   0.9996   1.0000   1.0000   1.0000   1.0000   0.9762   1.0000   1.0000   0.0000     215.927
  12950.   0.772   0.9732   1.0000   0.9974   1.0000   1.0000   1.0000   1.0000   0.9758   1.0000   1.0000   0.0000     217.265
  13000.   0.769   0.9478   1.0000   0.9733   0.9983   1.0000   1.0000   1.0000   0.9754   1.0000   1.0000   0.0000     219.877
  13050.   0.766   0.8023   1.0000   0.8244   0.9980   1.0000   1.0000   1.0000   0.9751   1.0000   1.0000   0.0000     229.764
  13100.   0.763   0.4944   1.0000   0.5084   0.9977   1.0000   1.0000   1.0000   0.9747   1.0000   1.0000   0.0000     255.046
  13150.   0.760   0.2826   1.0000   0.2909   0.9973   1.0000   1.0000   1.0000   0.9743   1.0000   1.0000   0.0000     290.913
  13200.   0.758   0.9705   1.0000   0.9995   0.9970   1.0000   1.0000   1.0000   0.9739   1.0000   1.0000   0.0000     292.390
  13250.   0.755   0.9703   1.0000   1.0000   0.9967   1.0000   1.0000   1.0000   0.9735   1.0000   1.0000   0.0000     293.873
  13300.   0.752   0.9695   0.9998   1.0000   0.9965   1.0000   1.0000   1.0000   0.9731   1.0000   1.0000   0.0000     295.400
  13350.   0.749   0.9687   0.9997   1.0000   0.9962   1.0000   1.0000   1.0000   0.9727   1.0000   1.0000   0.0000     296.963
  13400.   0.746   0.9673   0.9989   1.0000   0.9960   1.0000   1.0000   1.0000   0.9723   1.0000   1.0000   0.0000     298.597
  13450.   0.743   0.9650   0.9970   1.0000   0.9960   1.0000   1.0000   1.0000   0.9719   1.0000   1.0000   0.0000     300.348
  13500.   0.741   0.9596   0.9918   1.0000   0.9959   1.0000   1.0000   0.9999   0.9715   1.0000   1.0000   0.0000     302.370
  13550.   0.738   0.9498   0.9823   1.0000   0.9959   1.0000   1.0000   0.9998   0.9710   1.0000   1.0000   0.0000     304.881
  13600.   0.735   0.9447   0.9776   1.0000   0.9959   1.0000   1.0000   0.9998   0.9706   1.0000   1.0000   0.0000     307.645
  13650.   0.733   0.9374   0.9709   1.0000   0.9957   1.0000   1.0000   0.9995   0.9702   1.0000   1.0000   0.0000     310.773
  13700.   0.730   0.9068   0.9402   1.0000   0.9956   1.0000   1.0000   0.9991   0.9697   1.0000   1.0000   0.0000     315.432
  13750.   0.727   0.9010   0.9349   1.0000   0.9954   1.0000   1.0000   0.9988   0.9693   1.0000   1.0000   0.0000     320.384
  13800.   0.725   0.8998   0.9345   1.0000   0.9952   1.0000   1.0000   0.9986   0.9688   1.0000   1.0000   0.0000     325.394
  13850.   0.722   0.9332   0.9698   1.0000   0.9948   1.0000   1.0000   0.9989   0.9684   1.0000   1.0000   0.0000     328.731
  13900.   0.719   0.8736   0.9092   1.0000   0.9944   1.0000   1.0000   0.9982   0.9679   1.0000   1.0000   0.0000     335.053
  13950.   0.717   0.9169   0.9543   1.0000   0.9940   1.0000   1.0000   0.9992   0.9675   1.0000   1.0000   0.0000     339.205
  14000.   0.714   0.9463   0.9851   1.0000   0.9936   1.0000   1.0000   0.9998   0.9670   1.0000   1.0000   0.0000     341.890
  14050.   0.712   0.9499   0.9895   1.0000   0.9933   1.0000   1.0000   0.9999   0.9665   1.0000   1.0000   0.0000     344.393
  14100.   0.709   0.9467   0.9869   1.0000   0.9931   1.0000   1.0000   0.9999   0.9661   1.0000   1.0000   0.0000     347.056
  14150.   0.707   0.9398   0.9805   1.0000   0.9928   1.0000   1.0000   0.9999   0.9656   1.0000   1.0000   0.0000     350.064
  14200.   0.704   0.9424   0.9841   1.0000   0.9925   1.0000   1.0000   0.9998   0.9651   1.0000   1.0000   0.0000     352.942
  14250.   0.702   0.9287   0.9708   1.0000   0.9921   1.0000   1.0000   0.9997   0.9646   1.0000   1.0000   0.0000     356.505
  14300.   0.699   0.9260   0.9688   1.0000   0.9917   1.0000   1.0000   0.9997   0.9641   1.0000   1.0000   0.0000     360.204
  14350.   0.697   0.9426   0.9877   0.9994   0.9913   1.0000   1.0000   0.9998   0.9636   1.0000   1.0000   0.0000     363.076
  14400.   0.694   0.9159   0.9665   0.9934   0.9908   1.0000   1.0000   0.9997   0.9631   1.0000   1.0000   0.0000     367.280
  14450.   0.692   0.9102   0.9923   0.9624   0.9903   1.0000   1.0000   0.9999   0.9626   1.0000   1.0000   0.0000     371.769
  14500.   0.690   0.8370   0.9990   0.8799   0.9897   1.0000   1.0000   1.0000   0.9621   1.0000   1.0000   0.0000     379.922
  14550.   0.687   0.7483   0.9992   0.7874   0.9891   1.0000   1.0000   1.0000   0.9616   1.0000   1.0000   0.0000     392.505
  14600.   0.685   0.9484   0.9983   1.0000   0.9885   1.0000   1.0000   1.0000   0.9610   1.0000   1.0000   0.0000     395.085
  14650.   0.683   0.9477   0.9988   1.0000   0.9878   1.0000   1.0000   1.0000   0.9605   1.0000   1.0000   0.0000     397.701
  14700.   0.680   0.9471   0.9995   1.0000   0.9871   1.0000   1.0000   1.0000   0.9600   1.0000   1.0000   0.0000     400.344
  14750.   0.678   0.9463   1.0000   1.0000   0.9864   1.0000   1.0000   1.0000   0.9594   1.0000   1.0000   0.0000     403.027
  14800.   0.676   0.9451   1.0000   1.0000   0.9857   1.0000   1.0000   1.0000   0.9589   1.0000   1.0000   0.0000     405.771
  14850.   0.673   0.9437   1.0000   1.0000   0.9848   1.0000   1.0000   1.0000   0.9583   1.0000   1.0000   0.0000     408.584
  14900.   0.671   0.9424   1.0000   1.0000   0.9839   1.0000   1.0000   1.0000   0.9577   1.0000   1.0000   0.0000     411.466
  14950.   0.669   0.9409   0.9999   1.0000   0.9831   1.0000   1.0000   1.0000   0.9572   1.0000   1.0000   0.0000     414.422
1
   FREQ WAVELENGTH  TOTAL     H2O     CO2+     OZONE    TRACE  N2 CONT  H2O CONT MOL SCAT  AER-HYD  HNO3    AER-HYD  INTEGRATED

   1/CM  MICRONS    TRANS    TRANS    TRANS    TRANS    TRANS   TRANS    TRANS    TRANS     TRANS   TRANS    ABS     ABSORPTION

  15000.   0.667   0.9390   0.9994   1.0000   0.9822   1.0000   1.0000   1.0000   0.9566   1.0000   1.0000   0.0000     417.470
  15050.   0.664   0.9371   0.9988   1.0000   0.9814   1.0000   1.0000   1.0000   0.9560   1.0000   1.0000   0.0000     420.614
  15100.   0.662   0.9360   0.9991   1.0000   0.9806   1.0000   1.0000   1.0000   0.9555   1.0000   1.0000   0.0000     423.814
  15150.   0.660   0.9321   0.9964   1.0000   0.9797   1.0000   1.0000   1.0000   0.9549   1.0000   1.0000   0.0000     427.208
  15200.   0.658   0.9286   0.9941   1.0000   0.9789   1.0000   1.0000   0.9999   0.9543   1.0000   1.0000   0.0000     430.777
  15250.   0.656   0.9232   0.9897   1.0000   0.9781   1.0000   1.0000   0.9999   0.9537   1.0000   1.0000   0.0000     434.619
  15300.   0.654   0.9242   0.9923   1.0000   0.9773   1.0000   1.0000   0.9999   0.9531   1.0000   1.0000   0.0000     438.407
  15350.   0.651   0.9188   0.9879   1.0000   0.9765   1.0000   1.0000   0.9999   0.9525   1.0000   1.0000   0.0000     442.470
  15400.   0.649   0.9161   0.9865   1.0000   0.9757   1.0000   1.0000   0.9999   0.9518   1.0000   1.0000   0.0000     446.665
  15450.   0.647   0.9130   0.9848   1.0000   0.9747   1.0000   1.0000   0.9999   0.9512   1.0000   1.0000   0.0000     451.015
  15500.   0.645   0.9223   0.9965   1.0000   0.9738   1.0000   1.0000   1.0000   0.9506   1.0000   1.0000   0.0000     454.898
  15550.   0.643   0.9224   0.9981   1.0000   0.9728   1.0000   1.0000   1.0000   0.9500   1.0000   1.0000   0.0000     458.781
  15600.   0.641   0.9215   0.9989   1.0000   0.9718   1.0000   1.0000   1.0000   0.9493   1.0000   1.0000   0.0000     462.704
  15650.   0.639   0.9193   0.9987   1.0000   0.9704   1.0000   1.0000   1.0000   0.9487   1.0000   1.0000   0.0000     466.737
  15700.   0.637   0.9168   0.9980   1.0000   0.9690   1.0000   1.0000   1.0000   0.9480   1.0000   1.0000   0.0000     470.898
  15750.   0.635   0.9139   0.9972   0.9997   0.9676   1.0000   1.0000   1.0000   0.9474   1.0000   1.0000   0.0000     475.204
  15800.   0.633   0.9102   0.9973   0.9978   0.9662   1.0000   1.0000   1.0000   0.9467   1.0000   1.0000   0.0000     479.694
  15850.   0.631   0.9035   0.9989   0.9903   0.9654   1.0000   1.0000   1.0000   0.9460   1.0000   1.0000   0.0000     484.520
  15900.   0.629   0.8957   0.9957   0.9864   0.9647   1.0000   1.0000   1.0000   0.9454   1.0000   1.0000   0.0000     489.735
  15950.   0.627   0.9082   0.9975   0.9999   0.9639   1.0000   1.0000   1.0000   0.9447   1.0000   1.0000   0.0000     494.325
  16000.   0.625   0.9092   1.0000   1.0000   0.9631   1.0000   1.0000   1.0000   0.9440   1.0000   1.0000   0.0000     498.866
  16050.   0.623   0.9078   1.0000   1.0000   0.9623   1.0000   1.0000   1.0000   0.9433   1.0000   1.0000   0.0000     503.479
  16100.   0.621   0.9063   1.0000   1.0000   0.9615   1.0000   1.0000   1.0000   0.9426   1.0000   1.0000   0.0000     508.163
  16150.   0.619   0.9049   1.0000   1.0000   0.9607   1.0000   1.0000   1.0000   0.9419   1.0000   1.0000   0.0000     512.920
  16200.   0.617   0.9034   1.0000   1.0000   0.9599   1.0000   1.0000   1.0000   0.9412   1.0000   1.0000   0.0000     517.749
  16250.   0.615   0.9018   1.0000   1.0000   0.9589   1.0000   1.0000   1.0000   0.9405   1.0000   1.0000   0.0000     522.659
  16300.   0.613   0.9002   1.0000   1.0000   0.9579   1.0000   1.0000   1.0000   0.9397   1.0000   1.0000   0.0000     527.650
  16350.   0.612   0.8985   1.0000   1.0000   0.9569   1.0000   1.0000   1.0000   0.9390   1.0000   1.0000   0.0000     532.723
  16400.   0.610   0.8969   1.0000   1.0000   0.9559   1.0000   1.0000   1.0000   0.9383   1.0000   1.0000   0.0000     537.878
  16450.   0.608   0.8955   1.0000   1.0000   0.9552   1.0000   1.0000   1.0000   0.9375   1.0000   1.0000   0.0000     543.102
  16500.   0.606   0.8941   0.9999   1.0000   0.9545   1.0000   1.0000   1.0000   0.9368   1.0000   1.0000   0.0000     548.398
  16550.   0.604   0.8924   0.9996   1.0000   0.9538   1.0000   1.0000   1.0000   0.9360   1.0000   1.0000   0.0000     553.779
  16600.   0.602   0.8905   0.9990   1.0000   0.9530   1.0000   1.0000   1.0000   0.9353   1.0000   1.0000   0.0000     559.256
  16650.   0.601   0.8885   0.9962   1.0000   0.9545   1.0000   1.0000   1.0000   0.9345   1.0000   1.0000   0.0000     564.829
  16700.   0.599   0.8856   0.9923   1.0000   0.9559   1.0000   1.0000   0.9999   0.9337   1.0000   1.0000   0.0000     570.547
  16750.   0.597   0.8815   0.9870   1.0000   0.9574   1.0000   1.0000   0.9999   0.9329   1.0000   1.0000   0.0000     576.473
  16800.   0.595   0.8787   0.9833   1.0000   0.9588   1.0000   1.0000   0.9998   0.9321   1.0000   1.0000   0.0000     582.540
  16850.   0.593   0.8831   0.9890   1.0000   0.9589   1.0000   1.0000   0.9998   0.9313   1.0000   1.0000   0.0000     588.385
  16900.   0.592   0.8763   0.9822   1.0000   0.9590   1.0000   1.0000   0.9998   0.9305   1.0000   1.0000   0.0000     594.568
  16950.   0.590   0.8703   0.9762   1.0000   0.9591   1.0000   1.0000   0.9998   0.9297   1.0000   1.0000   0.0000     601.052
  17000.   0.588   0.8789   0.9866   1.0000   0.9592   1.0000   1.0000   0.9999   0.9289   1.0000   1.0000   0.0000     607.107
  17050.   0.587   0.8876   0.9976   1.0000   0.9587   1.0000   1.0000   1.0000   0.9281   1.0000   1.0000   0.0000     612.727
  17100.   0.585   0.8873   0.9986   1.0000   0.9583   1.0000   1.0000   1.0000   0.9273   1.0000   1.0000   0.0000     618.362
  17150.   0.583   0.8864   0.9990   1.0000   0.9578   1.0000   1.0000   1.0000   0.9264   1.0000   1.0000   0.0000     624.041
  17200.   0.581   0.8856   0.9994   1.0000   0.9574   1.0000   1.0000   1.0000   0.9256   1.0000   1.0000   0.0000     629.761
  17250.   0.580   0.8842   0.9990   1.0000   0.9571   1.0000   1.0000   1.0000   0.9247   1.0000   1.0000   0.0000     635.553
  17300.   0.578   0.8826   0.9985   1.0000   0.9568   1.0000   1.0000   1.0000   0.9239   1.0000   1.0000   0.0000     641.422
  17350.   0.576   0.8801   0.9969   1.0000   0.9565   1.0000   1.0000   1.0000   0.9230   1.0000   1.0000   0.0000     647.416
  17400.   0.575   0.8773   0.9949   1.0000   0.9563   1.0000   1.0000   1.0000   0.9221   1.0000   1.0000   0.0000     653.550
  17450.   0.573   0.8777   0.9957   1.0000   0.9568   1.0000   1.0000   1.0000   0.9213   1.0000   1.0000   0.0000     659.666
1
   FREQ WAVELENGTH  TOTAL     H2O     CO2+     OZONE    TRACE  N2 CONT  H2O CONT MOL SCAT  AER-HYD  HNO3    AER-HYD  INTEGRATED

   1/CM  MICRONS    TRANS    TRANS    TRANS    TRANS    TRANS   TRANS    TRANS    TRANS     TRANS   TRANS    ABS     ABSORPTION

  17500.   0.571   0.8786   0.9971   1.0000   0.9574   1.0000   1.0000   1.0000   0.9204   1.0000   1.0000   0.0000     665.737
  17550.   0.570   0.8748   0.9933   1.0000   0.9579   1.0000   1.0000   1.0000   0.9195   1.0000   1.0000   0.0000     671.996
  17600.   0.568   0.8772   0.9964   1.0000   0.9584   1.0000   1.0000   1.0000   0.9186   1.0000   1.0000   0.0000     678.136
  17650.   0.567   0.8800   0.9996   1.0000   0.9593   1.0000   1.0000   1.0000   0.9177   1.0000   1.0000   0.0000     684.137
  17700.   0.565   0.8801   0.9997   1.0000   0.9602   1.0000   1.0000   1.0000   0.9168   1.0000   1.0000   0.0000     690.134
  17750.   0.563   0.8802   0.9999   1.0000   0.9611   1.0000   1.0000   1.0000   0.9158   1.0000   1.0000   0.0000     696.125
  17800.   0.562   0.8801   0.9999   1.0000   0.9620   1.0000   1.0000   1.0000   0.9149   1.0000   1.0000   0.0000     702.120
  17850.   0.560   0.8802   1.0000   1.0000   0.9630   1.0000   1.0000   1.0000   0.9140   1.0000   1.0000   0.0000     708.112
  17900.   0.559   0.8801   1.0000   1.0000   0.9640   1.0000   1.0000   1.0000   0.9130   1.0000   1.0000   0.0000     714.106
  17950.   0.557   0.8801   1.0000   1.0000   0.9649   1.0000   1.0000   1.0000   0.9121   1.0000   1.0000   0.0000     720.101
  18000.   0.556   0.8800   1.0000   1.0000   0.9659   1.0000   1.0000   1.0000   0.9111   1.0000   1.0000   0.0000     726.099
  18050.   0.554   0.8799   1.0000   1.0000   0.9668   1.0000   1.0000   1.0000   0.9102   1.0000   1.0000   0.0000     732.104
  18100.   0.552   0.8798   1.0000   1.0000   0.9676   1.0000   1.0000   1.0000   0.9092   1.0000   1.0000   0.0000     738.116
  18150.   0.551   0.8796   1.0000   1.0000   0.9685   1.0000   1.0000   1.0000   0.9082   1.0000   1.0000   0.0000     744.136
  18200.   0.549   0.8794   1.0000   1.0000   0.9694   1.0000   1.0000   1.0000   0.9072   1.0000   1.0000   0.0000     750.164
  18250.   0.548   0.8791   1.0000   1.0000   0.9700   1.0000   1.0000   1.0000   0.9062   1.0000   1.0000   0.0000     756.211
  18300.   0.546   0.8787   1.0000   1.0000   0.9707   1.0000   1.0000   1.0000   0.9052   1.0000   1.0000   0.0000     762.277
  18350.   0.545   0.8783   1.0000   1.0000   0.9713   1.0000   1.0000   1.0000   0.9042   1.0000   1.0000   0.0000     768.363
  18400.   0.543   0.8779   1.0000   1.0000   0.9720   1.0000   1.0000   1.0000   0.9032   1.0000   1.0000   0.0000     774.469
  18450.   0.542   0.8773   1.0000   1.0000   0.9724   1.0000   1.0000   1.0000   0.9022   1.0000   1.0000   0.0000     780.604
  18500.   0.541   0.8767   1.0000   1.0000   0.9729   1.0000   1.0000   1.0000   0.9012   1.0000   1.0000   0.0000     786.769
  18550.   0.539   0.8761   1.0000   1.0000   0.9733   1.0000   1.0000   1.0000   0.9001   1.0000   1.0000   0.0000     792.964
  18600.   0.538   0.8755   1.0000   1.0000   0.9738   1.0000   1.0000   1.0000   0.8991   1.0000   1.0000   0.0000     799.188
  18650.   0.536   0.8749   1.0000   1.0000   0.9742   1.0000   1.0000   1.0000   0.8980   1.0000   1.0000   0.0000     805.445
  18700.   0.535   0.8742   1.0000   1.0000   0.9747   1.0000   1.0000   1.0000   0.8970   1.0000   1.0000   0.0000     811.732
  18750.   0.533   0.8736   1.0000   1.0000   0.9751   1.0000   1.0000   1.0000   0.8959   1.0000   1.0000   0.0000     818.052
  18800.   0.532   0.8730   1.0000   1.0000   0.9756   1.0000   1.0000   1.0000   0.8948   1.0000   1.0000   0.0000     824.404
  18850.   0.531   0.8727   1.0000   1.0000   0.9765   1.0000   1.0000   1.0000   0.8937   1.0000   1.0000   0.0000     830.768
  18900.   0.529   0.8725   1.0000   1.0000   0.9775   1.0000   1.0000   1.0000   0.8926   1.0000   1.0000   0.0000     837.142
  18950.   0.528   0.8723   1.0000   1.0000   0.9784   1.0000   1.0000   1.0000   0.8915   1.0000   1.0000   0.0000     843.529
  19000.   0.526   0.8720   1.0000   1.0000   0.9793   1.0000   1.0000   1.0000   0.8904   1.0000   1.0000   0.0000     849.928
  19050.   0.525   0.8716   1.0000   1.0000   0.9801   1.0000   1.0000   1.0000   0.8893   1.0000   1.0000   0.0000     856.350
  19100.   0.524   0.8711   1.0000   1.0000   0.9808   1.0000   1.0000   1.0000   0.8882   1.0000   1.0000   0.0000     862.794
  19150.   0.522   0.8707   1.0000   1.0000   0.9815   1.0000   1.0000   1.0000   0.8871   1.0000   1.0000   0.0000     869.262
  19200.   0.521   0.8702   1.0000   1.0000   0.9822   1.0000   1.0000   1.0000   0.8859   1.0000   1.0000   0.0000     875.753
  19250.   0.519   0.8696   1.0000   1.0000   0.9829   1.0000   1.0000   1.0000   0.8848   1.0000   1.0000   0.0000     882.271
  19300.   0.518   0.8691   1.0000   1.0000   0.9835   1.0000   1.0000   1.0000   0.8836   1.0000   1.0000   0.0000     888.817
  19350.   0.517   0.8685   1.0000   1.0000   0.9842   1.0000   1.0000   1.0000   0.8825   1.0000   1.0000   0.0000     895.392
  19400.   0.515   0.8679   1.0000   1.0000   0.9849   1.0000   1.0000   1.0000   0.8813   1.0000   1.0000   0.0000     901.995
  19450.   0.514   0.8669   1.0000   1.0000   0.9850   1.0000   1.0000   1.0000   0.8801   1.0000   1.0000   0.0000     908.648
  19500.   0.513   0.8659   1.0000   1.0000   0.9852   1.0000   1.0000   1.0000   0.8789   1.0000   1.0000   0.0000     915.352
  19550.   0.512   0.8649   1.0000   1.0000   0.9854   1.0000   1.0000   1.0000   0.8777   1.0000   1.0000   0.0000     922.107
  19600.   0.510   0.8639   1.0000   1.0000   0.9856   1.0000   1.0000   1.0000   0.8765   1.0000   1.0000   0.0000     928.914
  19650.   0.509   0.8627   1.0000   1.0000   0.9856   1.0000   1.0000   1.0000   0.8753   1.0000   1.0000   0.0000     935.778
  19700.   0.508   0.8616   1.0000   1.0000   0.9857   1.0000   1.0000   1.0000   0.8741   1.0000   1.0000   0.0000     942.700
  19750.   0.506   0.8604   1.0000   1.0000   0.9857   1.0000   1.0000   1.0000   0.8729   1.0000   1.0000   0.0000     949.681
  19800.   0.505   0.8592   1.0000   1.0000   0.9858   1.0000   1.0000   1.0000   0.8716   1.0000   1.0000   0.0000     956.720
  19850.   0.504   0.8587   1.0000   1.0000   0.9866   1.0000   1.0000   1.0000   0.8704   1.0000   1.0000   0.0000     963.786
  19900.   0.503   0.8582   1.0000   1.0000   0.9874   1.0000   1.0000   1.0000   0.8691   1.0000   1.0000   0.0000     970.877
  19950.   0.501   0.8576   1.0000   1.0000   0.9882   1.0000   1.0000   1.0000   0.8679   1.0000   1.0000   0.0000     977.995
1
   FREQ WAVELENGTH  TOTAL     H2O     CO2+     OZONE    TRACE  N2 CONT  H2O CONT MOL SCAT  AER-HYD  HNO3    AER-HYD  INTEGRATED

   1/CM  MICRONS    TRANS    TRANS    TRANS    TRANS    TRANS   TRANS    TRANS    TRANS     TRANS   TRANS    ABS     ABSORPTION

  20000.   0.500   0.8571   1.0000   1.0000   0.9890   1.0000   1.0000   1.0000   0.8666   1.0000   1.0000   0.0000     981.568
0INTEGRATED ABSORPTION FROM10000 TO20000 CM-1 =    981.57 CM-1
 AVERAGE TRANSMITTANCE =0.9018

0 CARD 5 *****    0
